Wavelength[Angstrom];Normalized Flux[Counts]
3650.00;0.000044
3652.00;0.581906
3654.00;0.643445
3656.00;0.683614
3658.00;0.701406
3660.00;0.729011
3662.00;0.722316
3664.00;0.724334
3666.00;0.709018
3668.00;0.712045
3670.00;0.694436
3672.00;0.619004
3674.00;0.645141
3676.00;0.669720
3678.00;0.726535
3680.00;0.710302
3682.00;0.659815
3684.00;0.628725
3686.00;0.653625
3688.00;0.686641
3690.00;0.638905
3692.00;0.559025
3694.00;0.537518
3696.00;0.630743
3698.00;0.671004
3700.00;0.677424
3702.00;0.591215
3704.00;0.560813
3706.00;0.563610
3708.00;0.661512
3710.00;0.693519
3712.00;0.702002
3714.00;0.670637
3716.00;0.698838
3718.00;0.683523
3720.00;0.614418
3722.00;0.529310
3724.00;0.477035
3726.00;0.542746
3728.00;0.640143
3730.00;0.663529
3732.00;0.615702
3734.00;0.547744
3736.00;0.611437
3738.00;0.821823
3740.00;1.029045
3742.00;1.309223
3744.00;1.409830
3746.00;1.368239
3748.00;1.081137
3750.00;0.785643
3752.00;0.666143
3754.00;0.622810
3756.00;0.641931
3758.00;0.633219
3760.00;0.661604
3762.00;0.620425
3764.00;0.578238
3766.00;0.510234
3768.00;0.556503
3770.00;0.652708
3772.00;0.775417
3774.00;0.840441
3776.00;0.825813
3778.00;0.793026
3780.00;0.749601
3782.00;0.686320
3784.00;0.654817
3786.00;0.614326
3788.00;0.629642
3790.00;0.702920
3792.00;0.781241
3794.00;0.822924
3796.00;0.820814
3798.00;0.852225
3800.00;0.881802
3802.00;0.836910
3804.00;0.777802
3806.00;0.698609
3808.00;0.648443
3810.00;0.610245
3812.00;0.568838
3814.00;0.563335
3816.00;0.559804
3818.00;0.613226
3820.00;0.662521
3822.00;0.683523
3824.00;0.694024
3826.00;0.809121
3828.00;0.948614
3830.00;0.984244
3832.00;0.955722
3834.00;0.894229
3836.00;0.885425
3838.00;0.859516
3840.00;0.819026
3842.00;0.776930
3844.00;0.712733
3846.00;0.643628
3848.00;0.624415
3850.00;0.582640
3852.00;0.536418
3854.00;0.540820
3856.00;0.588418
3858.00;0.652524
3860.00;0.669720
3862.00;0.768906
3864.00;0.889735
3866.00;0.922843
3868.00;0.872219
3870.00;0.857912
3872.00;0.918303
3874.00;0.958840
3876.00;0.967827
3878.00;0.963700
3880.00;0.955309
3882.00;0.915323
3884.00;0.928438
3886.00;0.925915
3888.00;0.957602
3890.00;0.897714
3892.00;0.893037
3894.00;0.860617
3896.00;0.852913
3898.00;0.802931
3900.00;0.730433
3902.00;0.686916
3904.00;0.643903
3906.00;0.662842
3908.00;0.677240
3910.00;0.745336
3912.00;0.804306
3914.00;0.837735
3916.00;0.839707
3918.00;0.857132
3920.00;0.947422
3922.00;0.972000
3924.00;0.955401
3926.00;0.932610
3928.00;0.931143
3930.00;0.934628
3932.00;0.893908
3934.00;0.863414
3936.00;0.868321
3938.00;0.882903
3940.00;0.912617
3942.00;0.908307
3944.00;0.875612
3946.00;0.817329
3948.00;0.751802
3950.00;0.701131
3952.00;0.676507
3954.00;0.695124
3956.00;0.740108
3958.00;0.837919
3960.00;0.897531
3962.00;0.918624
3964.00;0.905739
3966.00;0.901933
3968.00;0.896201
3970.00;0.896430
3972.00;0.901612
3974.00;0.930226
3976.00;0.908903
3978.00;0.833516
3980.00;0.772620
3982.00;0.684806
3984.00;0.646334
3986.00;0.626616
3988.00;0.629734
3990.00;0.670224
3992.00;0.686136
3994.00;0.769227
3996.00;0.823932
3998.00;0.892120
4000.00;0.930226
4002.00;0.933436
4004.00;0.959528
4006.00;1.001302
4008.00;1.080220
4010.00;1.088932
4012.00;1.086043
4014.00;1.108604
4016.00;1.102643
4018.00;1.086043
4020.00;1.053119
4022.00;1.080128
4024.00;1.104615
4026.00;1.109613
4028.00;1.106724
4030.00;1.095444
4032.00;1.085722
4034.00;1.077835
4036.00;1.093930
4038.00;1.104340
4040.00;1.098608
4042.00;1.090124
4044.00;1.088611
4046.00;1.087006
4048.00;1.085539
4050.00;1.084026
4052.00;1.082512
4054.00;1.080907
4056.00;1.079211
4058.00;1.123232
4060.00;1.088840
4062.00;1.057705
4064.00;1.111814
4066.00;1.118142
4068.00;1.153818
4070.00;1.138915
4072.00;1.125112
4074.00;1.103514
4076.00;1.118509
4078.00;1.188714
4080.00;1.161843
4082.00;1.086731
4084.00;1.029320
4086.00;1.084622
4088.00;1.150837
4090.00;1.152442
4092.00;1.110622
4094.00;1.074534
4096.00;1.064537
4098.00;1.061006
4100.00;1.042114
4102.00;1.079303
4104.00;1.062932
4106.00;1.057200
4108.00;0.986216
4110.00;0.968240
4112.00;0.938342
4114.00;0.905418
4116.00;0.876712
4118.00;0.877125
4120.00;0.881940
4122.00;0.894046
4124.00;0.888405
4126.00;0.902025
4128.00;0.889827
4130.00;0.909637
4132.00;0.943616
4134.00;1.018727
4136.00;1.081825
4138.00;1.111631
4140.00;1.093839
4142.00;1.071415
4144.00;1.044406
4146.00;1.034043
4148.00;1.018911
4150.00;1.025422
4152.00;1.031017
4154.00;1.052018
4156.00;1.073341
4158.00;1.059034
4160.00;0.971817
4162.00;0.909316
4164.00;0.940819
4166.00;1.044315
4168.00;1.089528
4170.00;1.100625
4172.00;1.090445
4174.00;1.107137
4176.00;1.123140
4178.00;1.132403
4180.00;1.193208
4182.00;1.186238
4184.00;1.226407
4186.00;1.218337
4188.00;1.175508
4190.00;1.130936
4192.00;1.048625
4194.00;1.045736
4196.00;1.066921
4198.00;1.096636
4200.00;1.132036
4202.00;1.121444
4204.00;1.115941
4206.00;1.112043
4208.00;1.103331
4210.00;1.120206
4212.00;1.154643
4214.00;1.160238
4216.00;1.090308
4218.00;1.047525
4220.00;1.054907
4222.00;1.083200
4224.00;1.087144
4226.00;1.078431
4228.00;1.149828
4230.00;1.184816
4232.00;1.202104
4234.00;1.168538
4236.00;1.157211
4238.00;1.138823
4240.00;1.131211
4242.00;1.102643
4244.00;1.090904
4246.00;1.085722
4248.00;1.075221
4250.00;1.104340
4252.00;1.115712
4254.00;1.129331
4256.00;1.154001
4258.00;1.144922
4260.00;1.125938
4262.00;1.083430
4264.00;1.089024
4266.00;1.105715
4268.00;1.063941
4270.00;1.001531
4272.00;0.976815
4274.00;1.004833
4276.00;1.055503
4278.00;1.069902
4280.00;1.098241
4282.00;1.119931
4284.00;1.121306
4286.00;1.070636
4288.00;1.043810
4290.00;1.031017
4292.00;1.021937
4294.00;1.009006
4296.00;1.057429
4298.00;1.104615
4300.00;1.100717
4302.00;1.031429
4304.00;0.974706
4306.00;0.972826
4308.00;0.976723
4310.00;1.016205
4312.00;1.029503
4314.00;1.050001
4316.00;1.020240
4318.00;0.992819
4320.00;0.993415
4322.00;1.013133
4324.00;1.011941
4326.00;0.993828
4328.00;0.976540
4330.00;0.972138
4332.00;1.012307
4334.00;1.076643
4336.00;1.127634
4338.00;1.120618
4340.00;1.091500
4342.00;1.039041
4344.00;1.011436
4346.00;0.955722
4348.00;0.969616
4350.00;0.961820
4352.00;0.934903
4354.00;0.907023
4356.00;0.947009
4358.00;1.096911
4360.00;1.207515
4362.00;1.187613
4364.00;1.070727
4366.00;0.983831
4368.00;0.951503
4370.00;0.973101
4372.00;0.960812
4374.00;0.965122
4376.00;0.978145
4378.00;1.016343
4380.00;1.050413
4382.00;1.066142
4384.00;1.078340
4386.00;1.086823
4388.00;1.087144
4390.00;1.086410
4392.00;1.081825
4394.00;1.059401
4396.00;1.073616
4398.00;1.066830
4400.00;1.055641
4402.00;0.994836
4404.00;0.941827
4406.00;0.926833
4408.00;0.964801
4410.00;1.056421
4412.00;1.108513
4414.00;1.103606
4416.00;1.086915
4418.00;1.099525
4420.00;1.131716
4422.00;1.116629
4424.00;1.094022
4426.00;1.059814
4428.00;1.084301
4430.00;1.074442
4432.00;1.114336
4434.00;1.100534
4436.00;1.106541
4438.00;1.108604
4440.00;1.122636
4442.00;1.114611
4444.00;1.121123
4446.00;1.147811
4448.00;1.184908
4450.00;1.157532
4452.00;1.131807
4454.00;1.120206
4456.00;1.131532
4458.00;1.143134
4460.00;1.156523
4462.00;1.151617
4464.00;1.133137
4466.00;1.103102
4468.00;1.111539
4470.00;1.110301
4472.00;1.122911
4474.00;1.110301
4476.00;1.096407
4478.00;1.079440
4480.00;1.058025
4482.00;1.069031
4484.00;1.080403
4486.00;1.081504
4488.00;1.053302
4490.00;1.077606
4492.00;1.122911
4494.00;1.173903
4496.00;1.177800
4498.00;1.188210
4500.00;1.168813
4502.00;1.138044
4504.00;1.124929
4506.00;1.157945
4508.00;1.170922
4510.00;1.143730
4512.00;1.141024
4514.00;1.128643
4516.00;1.137035
4518.00;1.114703
4520.00;1.126305
4522.00;1.155010
4524.00;1.174407
4526.00;1.194538
4528.00;1.192428
4530.00;1.209945
4532.00;1.196326
4534.00;1.145702
4536.00;1.123324
4538.00;1.152121
4540.00;1.181744
4542.00;1.160513
4544.00;1.119701
4546.00;1.117409
4548.00;1.113924
4550.00;1.124837
4552.00;1.123828
4554.00;1.116629
4556.00;1.110118
4558.00;1.126901
4560.00;1.176104
4562.00;1.194629
4564.00;1.187430
4566.00;1.174636
4568.00;1.177204
4570.00;1.155331
4572.00;1.107412
4574.00;1.079944
4576.00;1.084713
4578.00;1.117409
4580.00;1.167024
4582.00;1.181240
4584.00;1.176425
4586.00;1.156432
4588.00;1.168538
4590.00;1.181102
4592.00;1.171518
4594.00;1.155836
4596.00;1.158816
4598.00;1.175003
4600.00;1.181744
4602.00;1.127038
4604.00;1.105440
4606.00;1.118601
4608.00;1.175324
4610.00;1.165832
4612.00;1.141620
4614.00;1.118417
4616.00;1.105624
4618.00;1.114932
4620.00;1.123828
4622.00;1.129423
4624.00;1.118601
4626.00;1.119610
4628.00;1.127313
4630.00;1.118509
4632.00;1.144922
4634.00;1.165328
4636.00;1.176333
4638.00;1.150929
4640.00;1.148820
4642.00;1.165832
4644.00;1.170143
4646.00;1.193621
4648.00;1.178809
4650.00;1.167620
4652.00;1.138227
4654.00;1.133137
4656.00;1.119105
4658.00;1.104615
4660.00;1.134834
4662.00;1.171702
4664.00;1.171839
4666.00;1.122820
4668.00;1.079532
4670.00;1.083109
4672.00;1.103606
4674.00;1.113924
4676.00;1.117317
4678.00;1.134100
4680.00;1.151709
4682.00;1.164411
4684.00;1.154414
4686.00;1.147627
4688.00;1.124516
4690.00;1.107641
4692.00;1.098608
4694.00;1.123507
4696.00;1.158128
4698.00;1.176837
4700.00;1.166428
4702.00;1.156111
4704.00;1.161338
4706.00;1.169913
4708.00;1.173444
4710.00;1.147811
4712.00;1.117317
4714.00;1.101130
4716.00;1.124241
4718.00;1.145243
4720.00;1.133412
4722.00;1.106036
4724.00;1.086639
4726.00;1.085814
4728.00;1.093105
4730.00;1.101130
4732.00;1.138227
4734.00;1.133733
4736.00;1.124929
4738.00;1.122315
4740.00;1.132908
4742.00;1.134238
4744.00;1.107229
4746.00;1.101818
4748.00;1.108329
4750.00;1.096315
4752.00;1.070040
4754.00;1.057934
4756.00;1.069444
4758.00;1.074304
4760.00;1.094939
4762.00;1.103744
4764.00;1.125021
4766.00;1.118922
4768.00;1.101222
4770.00;1.093334
4772.00;1.103927
4774.00;1.109521
4776.00;1.104523
4778.00;1.089024
4780.00;1.096544
4782.00;1.096223
4784.00;1.079211
4786.00;1.049542
4788.00;1.059126
4790.00;1.073112
4792.00;1.088932
4794.00;1.090308
4796.00;1.113924
4798.00;1.145610
4800.00;1.141941
4802.00;1.128230
4804.00;1.117730
4806.00;1.107412
4808.00;1.105440
4810.00;1.102505
4812.00;1.117913
4814.00;1.111539
4816.00;1.109842
4818.00;1.082833
4820.00;1.085814
4822.00;1.083338
4824.00;1.106541
4826.00;1.108421
4828.00;1.113419
4830.00;1.095444
4832.00;1.080724
4834.00;1.077331
4836.00;1.101405
4838.00;1.123232
4840.00;1.137402
4842.00;1.114244
4844.00;1.117409
4846.00;1.107733
4848.00;1.103606
4850.00;1.068114
4852.00;1.055137
4854.00;1.054816
4856.00;1.050322
4858.00;1.041242
4860.00;1.037528
4862.00;1.031521
4864.00;1.020240
4866.00;1.022717
4868.00;1.023542
4870.00;1.008226
4872.00;0.976723
4874.00;0.930914
4876.00;0.903630
4878.00;0.916607
4880.00;1.050918
4882.00;1.268503
4884.00;1.453118
4886.00;1.425421
4888.00;1.223106
4890.00;1.022717
4892.00;0.935407
4894.00;0.938801
4896.00;0.938938
4898.00;0.950127
4900.00;0.971404
4902.00;0.991718
4904.00;1.011344
4906.00;0.989105
4908.00;0.986445
4910.00;0.987637
4912.00;0.999835
4914.00;1.013546
4916.00;1.045002
4918.00;1.062244
4920.00;1.057934
4922.00;1.024230
4924.00;1.020332
4926.00;1.033126
4928.00;1.048121
4930.00;1.047341
4932.00;1.022717
4934.00;1.030741
4936.00;1.011344
4938.00;1.017122
4940.00;0.998734
4942.00;1.000844
4944.00;0.984244
4946.00;0.969203
4948.00;0.979612
4950.00;0.996029
4952.00;1.022029
4954.00;1.026110
4956.00;1.016939
4958.00;0.996717
4960.00;0.966222
4962.00;0.991305
4964.00;1.025101
4966.00;1.065913
4968.00;1.057934
4970.00;1.046011
4972.00;1.047525
4974.00;1.061740
4976.00;1.062107
4978.00;1.073708
4980.00;1.082008
4982.00;1.096636
4984.00;1.103239
4986.00;1.089941
4988.00;1.067013
4990.00;1.045920
4992.00;1.047112
4994.00;1.051514
4996.00;1.049817
4998.00;1.025101
5000.00;1.006209
5002.00;0.986216
5004.00;0.985436
5006.00;0.982318
5008.00;1.008501
5010.00;1.009006
5012.00;1.010519
5014.00;1.005337
5016.00;1.026844
5018.00;1.014738
5020.00;1.005842
5022.00;1.005016
5024.00;1.026018
5026.00;1.069306
5028.00;1.129606
5030.00;1.169822
5032.00;1.144739
5034.00;1.064629
5036.00;1.011803
5038.00;0.967736
5040.00;0.946917
5042.00;0.925732
5044.00;0.915644
5046.00;0.928346
5048.00;0.944624
5050.00;0.965443
5052.00;0.977044
5054.00;0.995937
5056.00;0.992635
5058.00;0.988417
5060.00;0.958014
5062.00;0.952420
5064.00;0.952833
5066.00;0.979521
5068.00;0.990709
5070.00;0.982134
5072.00;0.989609
5074.00;0.988600
5076.00;0.983510
5078.00;0.973238
5080.00;0.990939
5082.00;1.005521
5084.00;1.019140
5086.00;1.009327
5088.00;1.015013
5090.00;0.983923
5092.00;0.976632
5094.00;0.965535
5096.00;0.976907
5098.00;0.956730
5100.00;0.940727
5102.00;0.930914
5104.00;0.937517
5106.00;0.956501
5108.00;0.968836
5110.00;0.971313
5112.00;0.966727
5114.00;0.963517
5116.00;0.983418
5118.00;0.994836
5120.00;0.980713
5122.00;0.954529
5124.00;0.934720
5126.00;0.956043
5128.00;0.975531
5130.00;0.980942
5132.00;0.981401
5134.00;0.990618
5136.00;1.007217
5138.00;0.998826
5140.00;0.973926
5142.00;0.967231
5144.00;0.980025
5146.00;0.988142
5148.00;0.954713
5150.00;0.921238
5152.00;0.935728
5154.00;0.980805
5156.00;0.997404
5158.00;0.962508
5160.00;0.920734
5162.00;0.916744
5164.00;0.930318
5166.00;0.938434
5168.00;0.928025
5170.00;0.908123
5172.00;0.905922
5174.00;0.919404
5176.00;0.947330
5178.00;0.972826
5180.00;0.974843
5182.00;0.960215
5184.00;0.933436
5186.00;0.898631
5188.00;0.857132
5190.00;0.804215
5192.00;0.770235
5194.00;0.779911
5196.00;0.826409
5198.00;0.873823
5200.00;0.916928
5202.00;0.940727
5204.00;0.944441
5206.00;0.937838
5208.00;0.928529
5210.00;0.920734
5212.00;0.898723
5214.00;0.887534
5216.00;0.900328
5218.00;0.938113
5220.00;0.988233
5222.00;1.010611
5224.00;1.003320
5226.00;0.980530
5228.00;0.967919
5230.00;0.967644
5232.00;0.963425
5234.00;0.962646
5236.00;0.968836
5238.00;0.985940
5240.00;1.003411
5242.00;0.992819
5244.00;0.964709
5246.00;0.942423
5248.00;0.941644
5250.00;0.941231
5252.00;0.949118
5254.00;0.977044
5256.00;1.016113
5258.00;1.014830
5260.00;0.989930
5262.00;0.970808
5264.00;0.969203
5266.00;0.966635
5268.00;0.945037
5270.00;0.926512
5272.00;0.921422
5274.00;0.918441
5276.00;0.919037
5278.00;0.921743
5280.00;0.935728
5282.00;0.965535
5284.00;0.986720
5286.00;0.981813
5288.00;0.949210
5290.00;0.911104
5292.00;0.894046
5294.00;0.883132
5296.00;0.890836
5298.00;0.905418
5300.00;0.917845
5302.00;0.945037
5304.00;0.981722
5306.00;1.019736
5308.00;1.014142
5310.00;1.004237
5312.00;1.018131
5314.00;1.041838
5316.00;1.042343
5318.00;1.029503
5320.00;1.019828
5322.00;1.009418
5324.00;0.981217
5326.00;0.949439
5328.00;0.942332
5330.00;0.969203
5332.00;1.005612
5334.00;1.020103
5336.00;1.008822
5338.00;1.000614
5340.00;1.013912
5342.00;1.037115
5344.00;1.031934
5346.00;0.986307
5348.00;0.939122
5350.00;0.931235
5352.00;0.964526
5354.00;0.987912
5356.00;0.989517
5358.00;0.992727
5360.00;1.010932
5362.00;1.027440
5364.00;1.020103
5366.00;0.995937
5368.00;0.958519
5370.00;0.944120
5372.00;0.957923
5374.00;0.970120
5376.00;0.982318
5378.00;0.995616
5380.00;1.023726
5382.00;1.030420
5384.00;1.016022
5386.00;1.008501
5388.00;1.017031
5390.00;1.026110
5392.00;1.033539
5394.00;1.032117
5396.00;1.021341
5398.00;1.003916
5400.00;0.990709
5402.00;0.998918
5404.00;1.015426
5406.00;1.021937
5408.00;1.024001
5410.00;1.031429
5412.00;1.023542
5414.00;0.999009
5416.00;0.969432
5418.00;0.971221
5420.00;0.991030
5422.00;0.999514
5424.00;0.986445
5426.00;0.967507
5428.00;0.965214
5430.00;0.979016
5432.00;0.985207
5434.00;0.966819
5436.00;0.943616
5438.00;0.933619
5440.00;0.930226
5442.00;0.931922
5444.00;0.938205
5446.00;0.954300
5448.00;0.959115
5450.00;0.961912
5452.00;0.964709
5454.00;0.967644
5456.00;0.970441
5458.00;0.973330
5460.00;0.976127
5462.00;0.978924
5464.00;0.981813
5466.00;0.984611
5468.00;0.987545
5470.00;0.990343
5472.00;0.993140
5474.00;0.996029
5476.00;0.998826
5478.00;1.012307
5480.00;1.026614
5482.00;1.017443
5484.00;1.010519
5486.00;1.022212
5488.00;1.038216
5490.00;1.023129
5492.00;0.987545
5494.00;0.967919
5496.00;0.978603
5498.00;1.002724
5500.00;1.011436
5502.00;0.999514
5504.00;0.985528
5506.00;0.981309
5508.00;0.976540
5510.00;0.986812
5512.00;1.016113
5514.00;1.037436
5516.00;1.038032
5518.00;1.021341
5520.00;1.024505
5522.00;1.035327
5524.00;1.032209
5526.00;1.016113
5528.00;1.000935
5530.00;0.991122
5532.00;0.971725
5534.00;0.938021
5536.00;0.929630
5538.00;0.955813
5540.00;1.004741
5542.00;1.038216
5544.00;1.044727
5546.00;1.026431
5548.00;1.000522
5550.00;0.995020
5552.00;0.976036
5554.00;0.942011
5556.00;0.915002
5558.00;0.934124
5560.00;0.958106
5562.00;0.935224
5564.00;0.918028
5566.00;0.914314
5568.00;0.942102
5570.00;0.948110
5572.00;0.954208
5574.00;0.960215
5576.00;0.966314
5578.00;0.972321
5580.00;0.978420
5582.00;0.984519
5584.00;0.990526
5586.00;0.996625
5588.00;1.007217
5590.00;1.020103
5592.00;1.024230
5594.00;1.029228
5596.00;1.013133
5598.00;1.000614
5600.00;0.989425
5602.00;0.979612
5604.00;0.992131
5606.00;1.008914
5608.00;1.017810
5610.00;0.995524
5612.00;0.983143
5614.00;1.010015
5616.00;1.020240
5618.00;0.998826
5620.00;0.968424
5622.00;0.975440
5624.00;0.995524
5626.00;1.010015
5628.00;1.016343
5630.00;1.023038
5632.00;1.046011
5634.00;1.045828
5636.00;1.009143
5638.00;0.968424
5640.00;0.973605
5642.00;1.003732
5644.00;1.000110
5646.00;0.989013
5648.00;0.993140
5650.00;1.030145
5652.00;1.067105
5654.00;1.068114
5656.00;1.043902
5658.00;1.014325
5660.00;1.015334
5662.00;1.002724
5664.00;0.974339
5666.00;0.962233
5668.00;0.975623
5670.00;0.984519
5672.00;0.983510
5674.00;1.005934
5676.00;1.014738
5678.00;0.993232
5680.00;0.936416
5682.00;0.889231
5684.00;0.883040
5686.00;0.918441
5688.00;0.983739
5690.00;1.031704
5692.00;1.055045
5694.00;1.063620
5696.00;1.062703
5698.00;1.051927
5700.00;1.044406
5702.00;1.053440
5704.00;1.068618
5706.00;1.055503
5708.00;1.017627
5710.00;0.982639
5712.00;0.970212
5714.00;0.961637
5716.00;0.954025
5718.00;0.969432
5720.00;0.990022
5722.00;0.995433
5724.00;0.976036
5726.00;0.965810
5728.00;0.967002
5730.00;0.976036
5732.00;0.989701
5734.00;1.002632
5736.00;0.997634
5738.00;0.963013
5740.00;0.920413
5742.00;0.926833
5744.00;0.961912
5746.00;0.997909
5748.00;1.016618
5750.00;1.028816
5752.00;1.030420
5754.00;1.001027
5756.00;0.985803
5758.00;0.978741
5760.00;0.975118
5762.00;0.968607
5764.00;0.966910
5766.00;0.984519
5768.00;1.007630
5770.00;1.036336
5772.00;1.049313
5774.00;1.040325
5776.00;1.028907
5778.00;1.019736
5780.00;1.001210
5782.00;0.964021
5784.00;0.921926
5786.00;0.923623
5788.00;0.965214
5790.00;1.023726
5792.00;1.067839
5794.00;1.085126
5796.00;1.073204
5798.00;1.033034
5800.00;1.004925
5802.00;0.987041
5804.00;0.976311
5806.00;0.968515
5808.00;0.955309
5810.00;0.952833
5812.00;0.963334
5814.00;0.996625
5816.00;1.021937
5818.00;1.024734
5820.00;1.021616
5822.00;1.019507
5824.00;1.028632
5826.00;1.037941
5828.00;1.035510
5830.00;1.025514
5832.00;1.016022
5834.00;1.011620
5836.00;0.994332
5838.00;0.991214
5840.00;1.005246
5842.00;1.026110
5844.00;1.040004
5846.00;1.042801
5848.00;1.039225
5850.00;1.020240
5852.00;1.008043
5854.00;1.013637
5856.00;1.021433
5858.00;1.005842
5860.00;0.971909
5862.00;0.947926
5864.00;0.966910
